w transmission
300 0.000721414
300.5 0.00115661
301.002 0.00170601
301.504 0.00237255
302.007 0.00317285
302.51 0.00413105
303.015 0.00527225
303.52 0.0066258
304.027 0.00822562
304.534 0.0100945
305.042 0.0122329
305.551 0.0146399
306.06 0.0173392
306.571 0.0203586
307.082 0.0236831
307.595 0.0272639
308.108 0.0310888
308.622 0.0352076
309.136 0.0396523
309.652 0.0443599
310.169 0.0492247
310.686 0.054224
311.204 0.0594373
311.723 0.0649185
312.243 0.0705932
312.764 0.0763349
313.286 0.0821122
313.808 0.0879821
314.332 0.0939429
314.856 0.0998924
315.381 0.105755
315.907 0.111558
316.434 0.11737
316.962 0.123254
317.491 0.129274
318.02 0.135413
318.551 0.141481
319.082 0.147285
319.615 0.152889
320.148 0.158514
320.682 0.164124
321.217 0.169371
321.752 0.174106
322.289 0.17872
322.827 0.183708
323.365 0.188992
323.905 0.193974
324.445 0.1983
324.986 0.202319
325.528 0.2066
326.071 0.211191
326.615 0.215603
327.16 0.219486
327.706 0.223098
328.252 0.22696
328.8 0.231176
329.348 0.235283
329.898 0.238796
330.448 0.241787
330.999 0.244797
331.551 0.24823
332.104 0.251958
332.658 0.255545
333.213 0.258772
333.769 0.26184
334.326 0.265054
334.883 0.268424
335.442 0.271639
336.002 0.274415
336.562 0.276805
337.123 0.279161
337.686 0.281811
338.249 0.28478
338.813 0.28783
339.378 0.290719
339.945 0.293415
340.512 0.296053
341.08 0.298742
341.649 0.301441
342.218 0.304018
342.789 0.306398
343.361 0.308652
343.934 0.310951
344.507 0.313439
345.082 0.316138
345.658 0.318944
346.234 0.321725
346.812 0.324403
347.39 0.326981
347.97 0.329496
348.55 0.331974
349.132 0.334415
349.714 0.3368
350.297 0.339127
350.882 0.341416
351.467 0.343704
352.053 0.346027
352.641 0.348392
353.229 0.350779
353.818 0.353152
354.408 0.35548
354.999 0.357752
355.591 0.359967
356.185 0.362132
356.779 0.364255
357.374 0.366346
357.97 0.368417
358.567 0.370487
359.165 0.372586
359.764 0.374756
360.364 0.377035
360.966 0.37945
361.568 0.381991
362.171 0.384618
362.775 0.387273
363.38 0.389903
363.986 0.392473
364.593 0.394974
365.201 0.397414
365.811 0.399805
366.421 0.402159
367.032 0.404484
367.644 0.406787
368.258 0.409075
368.872 0.411353
369.487 0.413623
370.103 0.415888
370.721 0.418149
371.339 0.420405
371.959 0.422655
372.579 0.424898
373.2 0.427131
373.823 0.42935
374.447 0.431549
375.071 0.433721
375.697 0.435857
376.323 0.437949
376.951 0.439994
377.58 0.442003
378.21 0.443996
378.841 0.446007
379.473 0.448075
380.106 0.450227
380.74 0.452476
381.375 0.454806
382.011 0.457187
382.648 0.459579
383.286 0.46195
383.926 0.46428
384.566 0.466564
385.208 0.468804
385.85 0.47101
386.494 0.473187
387.138 0.475345
387.784 0.477487
388.431 0.479619
389.079 0.481744
389.728 0.483865
390.378 0.485981
391.029 0.488093
391.682 0.490198
392.335 0.492297
392.989 0.494387
393.645 0.496469
394.301 0.498543
394.959 0.500609
395.618 0.502668
396.278 0.504719
396.939 0.506765
397.601 0.508808
398.264 0.51085
398.929 0.512896
399.594 0.514951
400.261 0.517021
400.928 0.519106
401.597 0.521203
402.267 0.523308
402.938 0.525414
403.61 0.527517
404.283 0.529615
404.958 0.531708
405.633 0.533797
406.31 0.535879
406.988 0.537956
407.666 0.540024
408.346 0.542083
409.028 0.544135
409.71 0.54618
410.393 0.54822
411.078 0.550255
411.763 0.552284
412.45 0.554307
413.138 0.556319
413.827 0.558321
414.518 0.560312
415.209 0.562294
415.902 0.564269
416.596 0.566241
417.29 0.568209
417.987 0.570175
418.684 0.572137
419.382 0.574092
420.082 0.57604
420.782 0.577978
421.484 0.579903
422.187 0.581817
422.892 0.583718
423.597 0.585609
424.304 0.587494
425.011 0.589375
425.72 0.591256
426.43 0.593139
427.142 0.595022
427.854 0.596904
428.568 0.59878
429.283 0.600645
429.999 0.602494
430.716 0.604327
431.435 0.606144
432.154 0.607949
432.875 0.60975
433.597 0.61155
434.32 0.613349
435.045 0.615146
435.771 0.616933
436.497 0.618704
437.226 0.620454
437.955 0.622177
438.685 0.623873
439.417 0.625542
440.15 0.627187
440.884 0.628816
441.62 0.630439
442.356 0.632067
443.094 0.633711
443.833 0.635374
444.574 0.637056
445.315 0.638754
446.058 0.640463
446.802 0.642182
447.547 0.643906
448.294 0.645626
449.042 0.647336
449.791 0.649032
450.541 0.650714
451.293 0.652383
452.045 0.654039
452.799 0.655679
453.555 0.657296
454.311 0.658882
455.069 0.660429
455.828 0.661932
456.588 0.663391
457.35 0.664812
458.113 0.666206
458.877 0.667587
459.643 0.668972
460.409 0.670376
461.177 0.671814
461.947 0.673292
462.717 0.674811
463.489 0.676359
464.262 0.677915
465.036 0.679451
465.812 0.680939
466.589 0.682357
467.367 0.683699
468.147 0.684967
468.928 0.686172
469.71 0.687324
470.494 0.688428
471.278 0.689478
472.065 0.690455
472.852 0.691327
473.641 0.692064
474.431 0.692664
475.222 0.693181
476.015 0.693727
476.809 0.694445
477.604 0.695447
478.401 0.69677
479.199 0.698368
479.998 0.700149
480.799 0.702016
481.601 0.703902
482.404 0.705766
483.209 0.707592
484.015 0.709367
484.822 0.711077
485.631 0.712706
486.441 0.71424
487.253 0.715668
488.065 0.716993
488.879 0.718233
489.695 0.719417
490.512 0.720574
491.33 0.721724
492.149 0.722872
492.97 0.724009
493.793 0.725118
494.616 0.726178
495.441 0.727168
496.268 0.72807
497.096 0.728872
497.925 0.729567
498.755 0.730154
499.587 0.73064
500.421 0.73104
501.255 0.731379
502.092 0.731707
502.929 0.732098
503.768 0.732635
504.608 0.733377
505.45 0.734331
506.293 0.735465
507.138 0.736735
507.984 0.738098
508.831 0.739502
509.68 0.740888
510.53 0.7422
511.381 0.743403
512.234 0.744487
513.089 0.745464
513.945 0.746362
514.802 0.747208
515.661 0.748023
516.521 0.748821
517.383 0.749599
518.246 0.750348
519.11 0.751047
519.976 0.751675
520.843 0.752209
521.712 0.752637
522.582 0.752955
523.454 0.753171
524.327 0.753305
525.202 0.753381
526.078 0.753425
526.955 0.753459
527.834 0.753509
528.715 0.753605
529.597 0.753777
530.48 0.754055
531.365 0.75447
532.251 0.755042
533.139 0.755775
534.028 0.756653
534.919 0.757634
535.812 0.758657
536.705 0.759653
537.601 0.760564
538.497 0.761352
539.396 0.762007
540.295 0.762549
541.197 0.763017
542.099 0.763451
543.004 0.76388
543.909 0.764324
544.817 0.764799
545.725 0.76532
546.636 0.765893
547.547 0.766507
548.461 0.767142
549.376 0.767772
550.292 0.768371
551.21 0.768926
552.129 0.769423
553.05 0.769853
553.973 0.770206
554.897 0.77047
555.823 0.770638
556.75 0.770703
557.678 0.770666
558.609 0.770532
559.54 0.770315
560.474 0.770033
561.409 0.769704
562.345 0.769345
563.283 0.768961
564.223 0.768541
565.164 0.768061
566.107 0.767488
567.051 0.766809
567.997 0.766047
568.944 0.765258
569.893 0.764504
570.844 0.76383
571.796 0.763265
572.75 0.762853
573.705 0.76266
574.662 0.762762
575.621 0.763232
576.581 0.764137
577.543 0.765528
578.506 0.767414
579.471 0.769732
580.438 0.772333
581.406 0.775016
582.376 0.777577
583.347 0.779848
584.32 0.7817
585.295 0.783027
586.271 0.783761
587.249 0.783929
588.229 0.783711
589.21 0.783396
590.193 0.783241
591.177 0.78334
592.163 0.78363
593.151 0.783988
594.14 0.784346
595.132 0.784712
596.124 0.785131
597.119 0.78564
598.115 0.786247
599.112 0.78694
600.112 0.787707
601.113 0.788534
602.115 0.789424
603.12 0.790391
604.126 0.791454
605.134 0.792623
606.143 0.7939
607.154 0.795273
608.167 0.796724
609.181 0.798225
610.197 0.799746
611.215 0.801256
612.235 0.80273
613.256 0.804147
614.279 0.805496
615.304 0.806766
616.33 0.807947
617.358 0.809028
618.388 0.809997
619.419 0.810845
620.453 0.811558
621.488 0.812096
622.524 0.812347
623.563 0.812087
624.603 0.811037
625.645 0.809112
626.688 0.806733
627.734 0.804841
628.781 0.804448
629.829 0.806029
630.88 0.809295
631.932 0.813468
632.987 0.81775
634.042 0.821632
635.1 0.824958
636.159 0.827801
637.221 0.830304
638.283 0.832577
639.348 0.834672
640.415 0.836595
641.483 0.83832
642.553 0.839791
643.625 0.840938
644.698 0.841718
645.774 0.842186
646.851 0.842536
647.93 0.843036
649.011 0.843873
650.093 0.845046
651.178 0.846417
652.264 0.847853
653.352 0.849291
654.442 0.850729
655.533 0.85219
656.627 0.853701
657.722 0.85527
658.819 0.856865
659.918 0.858424
661.019 0.859892
662.122 0.861243
663.226 0.862487
664.332 0.863657
665.44 0.864788
666.55 0.865902
667.662 0.867005
668.776 0.868096
669.892 0.869171
671.009 0.870226
672.128 0.871259
673.249 0.872268
674.372 0.873252
675.497 0.87421
676.624 0.875135
677.753 0.876004
678.883 0.876724
680.016 0.87696
681.15 0.875786
682.286 0.871316
683.424 0.860971
684.564 0.843155
685.706 0.819742
686.85 0.796931
687.996 0.78252
689.143 0.781298
690.293 0.792505
691.444 0.811139
692.598 0.831296
693.753 0.848821
694.91 0.862041
696.069 0.871055
697.23 0.876692
698.393 0.879927
699.558 0.88173
700.725 0.882953
701.894 0.884163
703.065 0.885574
704.238 0.887162
705.412 0.888819
706.589 0.890438
707.768 0.89192
708.948 0.893149
710.131 0.893947
711.315 0.89396
712.502 0.892519
713.69 0.888665
714.881 0.881653
716.073 0.871893
717.268 0.861561
718.464 0.853797
719.663 0.850677
720.863 0.851728
722.065 0.854558
723.27 0.856957
724.476 0.858327
725.685 0.859399
726.895 0.861136
728.108 0.864103
729.322 0.868481
730.539 0.874167
731.757 0.880703
732.978 0.887282
734.201 0.893046
735.425 0.897531
736.652 0.900831
737.881 0.903347
739.112 0.905429
740.345 0.907224
741.58 0.908749
742.817 0.909995
744.056 0.910988
745.297 0.911781
746.54 0.912444
747.785 0.913045
749.033 0.913614
750.282 0.914073
751.534 0.913958
752.787 0.911683
754.043 0.903163
755.301 0.880739
756.56 0.835018
757.822 0.761749
759.087 0.670292
760.353 0.584563
761.621 0.531874
762.891 0.527765
764.164 0.569292
765.439 0.639825
766.716 0.718831
767.994 0.789886
769.275 0.844268
770.559 0.880537
771.844 0.901856
773.131 0.913008
774.421 0.9183
775.713 0.920683
777.007 0.921801
778.303 0.922421
779.601 0.922856
780.902 0.9232
782.204 0.923437
783.509 0.923487
784.816 0.923261
786.125 0.922737
787.436 0.922031
788.75 0.921398
790.065 0.9211
791.383 0.921155
792.703 0.920928
794.026 0.918287
795.35 0.907814
796.677 0.878563
798.006 0.814695
799.337 0.70342
800.67 0.54819
